#Vasileska2010
#  wavelength [um]       absorption coefficient [m-1]
8.922693266832917303e-01 1.011623292997211916e+06
8.942643391521196694e-01 9.548270582084330963e+05
8.962593516209476086e-01 9.012195719474058133e+05
8.982543640897755477e-01 8.145465991095707286e+05
9.002493765586034868e-01 7.362092244482325623e+05
9.022443890274314260e-01 6.464568224870569538e+05
9.042394014962593651e-01 6.101623700708820252e+05
9.062344139650873043e-01 5.280926987571476493e+05
9.082294264339152434e-01 4.912952152113415650e+05
9.102244389027431826e-01 4.440458897763019195e+05
9.122194513715711217e-01 3.955848481143119279e+05
9.142144638403990609e-01 3.788079383134879754e+05
9.162094763092270000e-01 3.050114800686083618e+05
9.182044887780549391e-01 2.878870190610687132e+05
9.201995012468828783e-01 2.420693333478684945e+05
9.221945137157108174e-01 2.065051995878658490e+05
9.241895261845387566e-01 1.813298322262657748e+05
9.261845386533666957e-01 1.592236327260872349e+05
9.281795511221946349e-01 1.378073149651434796e+05
9.301745635910225740e-01 1.175610585941053578e+05
9.321695760598502911e-01 1.062548611307099782e+05
9.341645885286784523e-01 8.934422775562925381e+04
9.361596009975061694e-01 7.404754511244334572e+04
9.381546134663343306e-01 6.048968248850786040e+04
9.401496259351620477e-01 4.941422003935696557e+04
9.421446384039899868e-01 4.095397967475236510e+04
9.441396508728179260e-01 2.107239639377310959e+04
9.461346633416458651e-01 2.107239639377310959e+04
9.481296758104738043e-01 1.904580121417776536e+04
9.501246882793017434e-01 8.986196471838098660e+03
9.521197007481296826e-01 5.825995408442655389e+03
9.541147132169576217e-01 1.044288696471139929e+03
9.561097256857855609e-01 1.059483269038633125e+03
9.581047381546135000e-01 1.059483269038633125e+03
9.600997506234414391e-01 1.044288696471139929e+03
